Twotheta      Intensity
   20.000      257
   20.015      264
   20.030      292
   20.045      271
   20.060      290
   20.075      265
   20.090      257
   20.105      252
   20.120      257
   20.135      262
   20.150      268
   20.165      239
   20.180      245
   20.195      251
   20.210      261
   20.225      269
   20.240      285
   20.255      256
   20.270      279
   20.285      290
   20.300      287
   20.315      289
   20.330      260
   20.345      277
   20.360      263
   20.375      275
   20.390      287
   20.405      279
   20.420      284
   20.435      264
   20.450      280
   20.465      275
   20.480      263
   20.495      267
   20.510      279
   20.525      258
   20.540      233
   20.555      252
   20.570      261
   20.585      258
   20.600      298
   20.615      276
   20.630      275
   20.645      271
   20.660      280
   20.675      251
   20.690      261
   20.705      280
   20.720      278
   20.735      286
   20.750      283
   20.765      261
   20.780      290
   20.795      301
   20.810      263
   20.825      279
   20.840      292
   20.855      282
   20.870      273
   20.885      291
   20.900      287
   20.915      269
   20.930      286
   20.945      271
   20.960      256
   20.975      285
   20.990      289
   21.005      300
   21.020      308
   21.035      284
   21.050      268
   21.065      266
   21.080      263
   21.095      269
   21.110      270
   21.125      264
   21.140      251
   21.155      291
   21.170      275
   21.185      286
   21.200      265
   21.215      290
   21.230      269
   21.245      282
   21.260      270
   21.275      276
   21.290      294
   21.305      278
   21.320      280
   21.335      317
   21.350      267
   21.365      294
   21.380      285
   21.395      281
   21.410      267
   21.425      277
   21.440      282
   21.455      291
   21.470      277
   21.485      272
   21.500      284
   21.515      275
   21.530      281
   21.545      296
   21.560      287
   21.575      291
   21.590      266
   21.605      294
   21.620      310
   21.635      242
   21.650      291
   21.665      289
   21.680      312
   21.695      281
   21.710      262
   21.725      265
   21.740      279
   21.755      295
   21.770      260
   21.785      274
   21.800      297
   21.815      284
   21.830      283
   21.845      294
   21.860      279
   21.875      265
   21.890      293
   21.905      289
   21.920      276
   21.935      263
   21.950      273
   21.965      287
   21.980      299
   21.995      258
   22.010      266
   22.025      251
   22.040      267
   22.055      278
   22.070      252
   22.085      237
   22.100      251
   22.115      269
   22.130      269
   22.145      280
   22.160      279
   22.175      240
   22.190      266
   22.205      268
   22.220      251
   22.235      264
   22.250      259
   22.265      266
   22.280      279
   22.295      274
   22.310      267
   22.325      267
   22.340      264
   22.355      242
   22.370      264
   22.385      271
   22.400      240
   22.415      259
   22.430      254
   22.445      256
   22.460      261
   22.475      249
   22.490      251
   22.505      249
   22.520      260
   22.535      275
   22.550      271
   22.565      242
   22.580      268
   22.595      274
   22.610      265
   22.625      260
   22.640      274
   22.655      271
   22.670      267
   22.685      255
   22.700      260
   22.715      250
   22.730      254
   22.745      284
   22.760      295
   22.775      292
   22.790      263
   22.805      248
   22.820      245
   22.835      257
   22.850      247
   22.865      246
   22.880      265
   22.895      270
   22.910      290
   22.925      280
   22.940      279
   22.955      271
   22.970      257
   22.985      264
   23.000      258
   23.015      232
   23.030      260
   23.045      266
   23.060      282
   23.075      270
   23.090      268
   23.105      262
   23.120      267
   23.135      268
   23.150      302
   23.165      281
   23.180      289
   23.195      275
   23.210      258
   23.225      258
   23.240      250
   23.255      261
   23.270      251
   23.285      277
   23.300      282
   23.315      269
   23.330      274
   23.345      279
   23.360      274
   23.375      265
   23.390      267
   23.405      267
   23.420      264
   23.435      268
   23.450      275
   23.465      246
   23.480      272
   23.495      265
   23.510      277
   23.525      299
   23.540      277
   23.555      271
   23.570      280
   23.585      276
   23.600      258
   23.615      281
   23.630      284
   23.645      265
   23.660      251
   23.675      258
   23.690      262
   23.705      286
   23.720      275
   23.735      267
   23.750      250
   23.765      256
   23.780      254
   23.795      261
   23.810      286
   23.825      266
   23.840      272
   23.855      269
   23.870      257
   23.885      268
   23.900      275
   23.915      272
   23.930      256
   23.945      264
   23.960      285
   23.975      256
   23.990      245
   24.005      242
   24.020      253
   24.035      231
   24.050      262
   24.065      256
   24.080      275
   24.095      283
   24.110      254
   24.125      240
   24.140      235
   24.155      269
   24.170      242
   24.185      262
   24.200      276
   24.215      271
   24.230      281
   24.245      280
   24.260      257
   24.275      260
   24.290      257
   24.305      257
   24.320      260
   24.335      255
   24.350      258
   24.365      283
   24.380      290
   24.395      288
   24.410      282
   24.425      265
   24.440      276
   24.455      254
   24.470      230
   24.485      243
   24.500      269
   24.515      261
   24.530      268
   24.545      241
   24.560      261
   24.575      284
   24.590      267
   24.605      272
   24.620      253
   24.635      273
   24.650      245
   24.665      226
   24.680      256
   24.695      269
   24.710      245
   24.725      265
   24.740      272
   24.755      237
   24.770      254
   24.785      251
   24.800      266
   24.815      256
   24.830      246
   24.845      257
   24.860      276
   24.875      271
   24.890      288
   24.905      254
   24.920      265
   24.935      262
   24.950      277
   24.965      310
   24.980      259
   24.995      278
   25.010      275
   25.025      272
   25.040      276
   25.055      251
   25.070      280
   25.085      281
   25.100      285
   25.115      282
   25.130      289
   25.145      300
   25.160      285
   25.175      270
   25.190      278
   25.205      292
   25.220      280
   25.235      303
   25.250      306
   25.265      283
   25.280      306
   25.295      300
   25.310      290
   25.325      333
   25.340      310
   25.355      325
   25.370      327
   25.385      334
   25.400      337
   25.415      322
   25.430      362
   25.445      380
   25.460      343
   25.475      376
   25.490      385
   25.505      402
   25.520      424
   25.535      425
   25.550      497
   25.565      485
   25.580      519
   25.595      483
   25.610      528
   25.625      500
   25.640      539
   25.655      538
   25.670      533
   25.685      576
   25.700      531
   25.715      594
   25.730      578
   25.745      556
   25.760      564
   25.775      545
   25.790      564
   25.805      563
   25.820      531
   25.835      486
   25.850      458
   25.865      458
   25.880      380
   25.895      359
   25.910      377
   25.925      391
   25.940      353
   25.955      335
   25.970      334
   25.985      313
   26.000      336
   26.015      319
   26.030      324
   26.045      298
   26.060      310
   26.075      290
   26.090      280
   26.105      270
   26.120      286
   26.135      312
   26.150      277
   26.165      296
   26.180      277
   26.195      261
   26.210      260
   26.225      247
   26.240      248
   26.255      256
   26.270      273
   26.285      292
   26.300      296
   26.315      294
   26.330      254
   26.345      267
   26.360      257
   26.375      262
   26.390      273
   26.405      245
   26.420      248
   26.435      251
   26.450      248
   26.465      259
   26.480      230
   26.495      249
   26.510      283
   26.525      264
   26.540      263
   26.555      250
   26.570      259
   26.585      248
   26.600      265
   26.615      262
   26.630      261
   26.645      222
   26.660      252
   26.675      240
   26.690      232
   26.705      268
   26.720      269
   26.735      276
   26.750      257
   26.765      270
   26.780      233
   26.795      257
   26.810      262
   26.825      266
   26.840      267
   26.855      261
   26.870      259
   26.885      265
   26.900      259
   26.915      252
   26.930      251
   26.945      291
   26.960      261
   26.975      271
   26.990      251
   27.005      235
   27.020      260
   27.035      282
   27.050      271
   27.065      283
   27.080      251
   27.095      271
   27.110      247
   27.125      255
   27.140      271
   27.155      263
   27.170      254
   27.185      265
   27.200      271
   27.215      256
   27.230      230
   27.245      242
   27.260      267
   27.275      268
   27.290      234
   27.305      258
   27.320      261
   27.335      277
   27.350      256
   27.365      281
   27.380      245
   27.395      270
   27.410      242
   27.425      253
   27.440      279
   27.455      255
   27.470      254
   27.485      283
   27.500      274
   27.515      276
   27.530      248
   27.545      278
   27.560      271
   27.575      253
   27.590      269
   27.605      269
   27.620      269
   27.635      249
   27.650      224
   27.665      257
   27.680      269
   27.695      261
   27.710      232
   27.725      275
   27.740      288
   27.755      267
   27.770      267
   27.785      296
   27.800      251
   27.815      296
   27.830      279
   27.845      258
   27.860      269
   27.875      271
   27.890      237
   27.905      251
   27.920      252
   27.935      265
   27.950      268
   27.965      277
   27.980      251
   27.995      251
   28.010      251
   28.025      230
   28.040      250
   28.055      253
   28.070      250
   28.085      255
   28.100      253
   28.115      254
   28.130      252
   28.145      236
   28.160      250
   28.175      253
   28.190      287
   28.205      288
   28.220      287
   28.235      273
   28.250      275
   28.265      262
   28.280      233
   28.295      228
   28.310      288
   28.325      262
   28.340      245
   28.355      252
   28.370      246
   28.385      248
   28.400      244
   28.415      250
   28.430      242
   28.445      242
   28.460      244
   28.475      244
   28.490      250
   28.505      271
   28.520      254
   28.535      251
   28.550      249
   28.565      238
   28.580      227
   28.595      254
   28.610      270
   28.625      249
   28.640      280
   28.655      249
   28.670      253
   28.685      254
   28.700      242
   28.715      257
   28.730      301
   28.745      272
   28.760      263
   28.775      239
   28.790      248
   28.805      275
   28.820      268
   28.835      249
   28.850      248
   28.865      247
   28.880      276
   28.895      251
   28.910      236
   28.925      261
   28.940      250
   28.955      246
   28.970      260
   28.985      275
   29.000      257
   29.015      263
   29.030      253
   29.045      242
   29.060      271
   29.075      298
   29.090      302
   29.105      273
   29.120      282
   29.135      288
   29.150      269
   29.165      295
   29.180      301
   29.195      283
   29.210      315
   29.225      300
   29.240      306
   29.255      303
   29.270      331
   29.285      343
   29.300      311
   29.315      334
   29.330      358
   29.345      371
   29.360      363
   29.375      351
   29.390      344
   29.405      371
   29.420      379
   29.435      367
   29.450      400
   29.465      439
   29.480      455
   29.495      448
   29.510      452
   29.525      450
   29.540      536
   29.555      534
   29.570      538
   29.585      584
   29.600      623
   29.615      640
   29.630      685
   29.645      780
   29.660      861
   29.675      876
   29.690      902
   29.705      950
   29.720     1034
   29.735     1120
   29.750     1111
   29.765     1291
   29.780     1323
   29.795     1366
   29.810     1385
   29.825     1423
   29.840     1521
   29.855     1550
   29.870     1491
   29.885     1413
   29.900     1327
   29.915     1320
   29.930     1176
   29.945     1057
   29.960      996
   29.975      890
   29.990      793
   30.005      710
   30.020      658
   30.035      572
   30.050      561
   30.065      525
   30.080      491
   30.095      483
   30.110      426
   30.125      398
   30.140      429
   30.155      375
   30.170      378
   30.185      346
   30.200      380
   30.215      349
   30.230      314
   30.245      339
   30.260      328
   30.275      293
   30.290      313
   30.305      355
   30.320      320
   30.335      300
   30.350      289
   30.365      303
   30.380      305
   30.395      287
   30.410      263
   30.425      280
   30.440      286
   30.455      279
   30.470      271
   30.485      257
   30.500      268
   30.515      264
   30.530      284
   30.545      259
   30.560      291
   30.575      281
   30.590      256
   30.605      248
   30.620      271
   30.635      284
   30.650      264
   30.665      267
   30.680      255
   30.695      241
   30.710      258
   30.725      241
   30.740      251
   30.755      277
   30.770      251
   30.785      271
   30.800      276
   30.815      275
   30.830      253
   30.845      268
   30.860      275
   30.875      268
   30.890      277
   30.905      271
   30.920      251
   30.935      259
   30.950      244
   30.965      246
   30.980      233
   30.995      266
   31.010      248
   31.025      247
   31.040      256
   31.055      285
   31.070      266
   31.085      250
   31.100      256
   31.115      251
   31.130      261
   31.145      253
   31.160      254
   31.175      264
   31.190      259
   31.205      257
   31.220      225
   31.235      269
   31.250      279
   31.265      254
   31.280      254
   31.295      260
   31.310      257
   31.325      264
   31.340      259
   31.355      248
   31.370      248
   31.385      263
   31.400      253
   31.415      272
   31.430      262
   31.445      253
   31.460      280
   31.475      242
   31.490      240
   31.505      235
   31.520      254
   31.535      277
   31.550      278
   31.565      266
   31.580      236
   31.595      273
   31.610      267
   31.625      258
   31.640      229
   31.655      239
   31.670      242
   31.685      230
   31.700      262
   31.715      278
   31.730      245
   31.745      241
   31.760      243
   31.775      266
   31.790      254
   31.805      276
   31.820      243
   31.835      263
   31.850      267
   31.865      282
   31.880      233
   31.895      256
   31.910      260
   31.925      243
   31.940      266
   31.955      248
   31.970      256
   31.985      253
   32.000      219
   32.015      257
   32.030      242
   32.045      247
   32.060      268
   32.075      235
   32.090      256
   32.105      259
   32.120      273
   32.135      254
   32.150      246
   32.165      254
   32.180      241
   32.195      261
   32.210      238
   32.225      234
   32.240      238
   32.255      248
   32.270      248
   32.285      272
   32.300      273
   32.315      257
   32.330      239
   32.345      257
   32.360      234
   32.375      248
   32.390      225
   32.405      247
   32.420      262
   32.435      255
   32.450      262
   32.465      237
   32.480      265
   32.495      249
   32.510      238
   32.525      269
   32.540      259
   32.555      267
   32.570      250
   32.585      260
   32.600      243
   32.615      234
   32.630      243
   32.645      209
   32.660      223
   32.675      249
   32.690      277
   32.705      253
   32.720      241
   32.735      232
   32.750      260
   32.765      245
   32.780      243
   32.795      265
   32.810      263
   32.825      247
   32.840      245
   32.855      277
   32.870      256
   32.885      248
   32.900      236
   32.915      247
   32.930      234
   32.945      248
   32.960      234
   32.975      253
   32.990      256
   33.005      265
   33.020      240
   33.035      270
   33.050      284
   33.065      266
   33.080      300
   33.095      278
   33.110      277
   33.125      266
   33.140      262
   33.155      287
   33.170      263
   33.185      268
   33.200      294
   33.215      278
   33.230      268
   33.245      271
   33.260      283
   33.275      305
   33.290      262
   33.305      256
   33.320      249
   33.335      257
   33.350      245
   33.365      226
   33.380      284
   33.395      248
   33.410      252
   33.425      266
   33.440      261
   33.455      246
   33.470      261
   33.485      227
   33.500      257
   33.515      269
   33.530      252
   33.545      290
   33.560      258
   33.575      251
   33.590      218
   33.605      260
   33.620      216
   33.635      228
   33.650      259
   33.665      245
   33.680      257
   33.695      256
   33.710      250
   33.725      274
   33.740      258
   33.755      237
   33.770      238
   33.785      250
   33.800      252
   33.815      238
   33.830      254
   33.845      266
   33.860      235
   33.875      229
   33.890      261
   33.905      239
   33.920      271
   33.935      283
   33.950      268
   33.965      230
   33.980      232
   33.995      246
   34.010      253
   34.025      249
   34.040      262
   34.055      248
   34.070      270
   34.085      248
   34.100      234
   34.115      229
   34.130      243
   34.145      247
   34.160      235
   34.175      240
   34.190      272
   34.205      263
   34.220      206
   34.235      217
   34.250      240
   34.265      255
   34.280      256
   34.295      235
   34.310      235
   34.325      239
   34.340      244
   34.355      248
   34.370      246
   34.385      214
   34.400      234
   34.415      228
   34.430      229
   34.445      230
   34.460      240
   34.475      239
   34.490      257
   34.505      228
   34.520      228
   34.535      249
   34.550      269
   34.565      253
   34.580      228
   34.595      247
   34.610      240
   34.625      245
   34.640      254
   34.655      283
   34.670      254
   34.685      229
   34.700      256
   34.715      233
   34.730      249
   34.745      257
   34.760      244
   34.775      247
   34.790      272
   34.805      271
   34.820      248
   34.835      241
   34.850      213
   34.865      234
   34.880      216
   34.895      252
   34.910      237
   34.925      266
   34.940      248
   34.955      245
   34.970      248
   34.985      249
   35.000      235
   35.015      223
   35.030      237
   35.045      235
   35.060      266
   35.075      263
   35.090      237
   35.105      244
   35.120      251
   35.135      262
   35.150      263
   35.165      254
   35.180      213
   35.195      234
   35.210      245
   35.225      233
   35.240      262
   35.255      282
   35.270      256
   35.285      232
   35.300      241
   35.315      243
   35.330      235
   35.345      255
   35.360      238
   35.375      232
   35.390      231
   35.405      236
   35.420      228
   35.435      235
   35.450      244
   35.465      229
   35.480      249
   35.495      243
   35.510      261
   35.525      242
   35.540      273
   35.555      242
   35.570      255
   35.585      260
   35.600      291
   35.615      241
   35.630      231
   35.645      231
   35.660      255
   35.675      251
   35.690      250
   35.705      276
   35.720      264
   35.735      276
   35.750      251
   35.765      244
   35.780      276
   35.795      244
   35.810      251
   35.825      234
   35.840      244
   35.855      250
   35.870      268
   35.885      262
   35.900      255
   35.915      259
   35.930      274
   35.945      279
   35.960      254
   35.975      234
   35.990      263
   36.005      243
   36.020      258
   36.035      255
   36.050      241
   36.065      251
   36.080      244
   36.095      268
   36.110      230
   36.125      237
   36.140      248
   36.155      243
   36.170      233
   36.185      259
   36.200      269
   36.215      263
   36.230      244
   36.245      232
   36.260      225
   36.275      225
   36.290      246
   36.305      257
   36.320      244
   36.335      263
   36.350      267
   36.365      252
   36.380      263
   36.395      243
   36.410      234
   36.425      233
   36.440      216
   36.455      230
   36.470      248
   36.485      253
   36.500      274
   36.515      279
   36.530      242
   36.545      287
   36.560      276
   36.575      292
   36.590      249
   36.605      267
   36.620      266
   36.635      252
   36.650      311
   36.665      296
   36.680      254
   36.695      257
   36.710      272
   36.725      264
   36.740      306
   36.755      251
   36.770      255
   36.785      303
   36.800      323
   36.815      305
   36.830      292
   36.845      316
   36.860      312
   36.875      275
   36.890      285
   36.905      279
   36.920      283
   36.935      275
   36.950      276
   36.965      281
   36.980      267
   36.995      261
   37.010      272
   37.025      258
   37.040      258
   37.055      266
   37.070      254
   37.085      270
   37.100      300
   37.115      291
   37.130      280
   37.145      288
   37.160      283
   37.175      260
   37.190      271
   37.205      273
   37.220      284
   37.235      292
   37.250      280
   37.265      297
   37.280      279
   37.295      281
   37.310      291
   37.325      305
   37.340      286
   37.355      278
   37.370      300
   37.385      289
   37.400      273
   37.415      303
   37.430      296
   37.445      259
   37.460      282
   37.475      267
   37.490      254
   37.505      288
   37.520      304
   37.535      297
   37.550      285
   37.565      262
   37.580      289
   37.595      268
   37.610      281
   37.625      266
   37.640      267
   37.655      285
   37.670      299
   37.685      268
   37.700      276
   37.715      249
   37.730      276
   37.745      240
   37.760      232
   37.775      280
   37.790      285
   37.805      289
   37.820      271
   37.835      268
   37.850      262
   37.865      279
   37.880      252
   37.895      262
   37.910      247
   37.925      248
   37.940      268
   37.955      243
   37.970      245
   37.985      272
   38.000      222
   38.015      231
   38.030      243
   38.045      234
   38.060      242
   38.075      237
   38.090      261
   38.105      228
   38.120      229
   38.135      240
   38.150      233
   38.165      256
   38.180      263
   38.195      264
   38.210      262
   38.225      255
   38.240      252
   38.255      244
   38.270      236
   38.285      251
   38.300      228
   38.315      235
   38.330      245
   38.345      259
   38.360      268
   38.375      239
   38.390      256
   38.405      231
   38.420      237
   38.435      253
   38.450      258
   38.465      254
   38.480      260
   38.495      242
   38.510      238
   38.525      229
   38.540      239
   38.555      258
   38.570      232
   38.585      258
   38.600      252
   38.615      242
   38.630      234
   38.645      259
   38.660      238
   38.675      242
   38.690      238
   38.705      238
   38.720      229
   38.735      247
   38.750      256
   38.765      246
   38.780      269
   38.795      259
   38.810      238
   38.825      228
   38.840      238
   38.855      250
   38.870      240
   38.885      254
   38.900      259
   38.915      240
   38.930      236
   38.945      246
   38.960      244
   38.975      260
   38.990      255
   39.005      268
   39.020      266
   39.035      247
   39.050      266
   39.065      245
   39.080      239
   39.095      251
   39.110      275
   39.125      267
   39.140      247
   39.155      245
   39.170      276
   39.185      260
   39.200      268
   39.215      253
   39.230      236
   39.245      250
   39.260      251
   39.275      254
   39.290      263
   39.305      254
   39.320      264
   39.335      257
   39.350      257
   39.365      256
   39.380      265
   39.395      273
   39.410      280
   39.425      259
   39.440      271
   39.455      284
   39.470      301
   39.485      256
   39.500      262
   39.515      266
   39.530      286
   39.545      273
   39.560      291
   39.575      273
   39.590      290
   39.605      295
   39.620      288
   39.635      294
   39.650      297
   39.665      338
   39.680      351
   39.695      327
   39.710      329
   39.725      290
   39.740      306
   39.755      326
   39.770      327
   39.785      320
   39.800      344
   39.815      322
   39.830      375
   39.845      364
   39.860      385
   39.875      320
   39.890      338
   39.905      342
   39.920      327
   39.935      326
   39.950      323
   39.965      312
   39.980      348
   39.995      300
   40.010      315
   40.025      264
   40.040      262
   40.055      267
   40.070      294
   40.085      261
   40.100      271
   40.115      294
   40.130      288
   40.145      276
   40.160      252
   40.175      258
   40.190      269
   40.205      248
   40.220      276
   40.235      250
   40.250      279
   40.265      279
   40.280      245
   40.295      256
   40.310      271
   40.325      255
   40.340      247
   40.355      253
   40.370      261
   40.385      256
   40.400      297
   40.415      240
   40.430      244
   40.445      265
   40.460      254
   40.475      272
   40.490      272
   40.505      272
   40.520      240
   40.535      265
   40.550      273
   40.565      260
   40.580      275
   40.595      253
   40.610      238
   40.625      246
   40.640      251
   40.655      280
   40.670      247
   40.685      243
   40.700      266
   40.715      262
   40.730      270
   40.745      242
   40.760      249
   40.775      269
   40.790      274
   40.805      270
   40.820      260
   40.835      268
   40.850      265
   40.865      261
   40.880      263
   40.895      270
   40.910      274
   40.925      249
   40.940      241
   40.955      265
   40.970      260
   40.985      226
   41.000      258
   41.015      262
   41.030      250
   41.045      246
   41.060      254
   41.075      247
   41.090      264
   41.105      244
   41.120      273
   41.135      242
   41.150      250
   41.165      273
   41.180      277
   41.195      240
   41.210      279
   41.225      276
   41.240      265
   41.255      267
   41.270      295
   41.285      254
   41.300      256
   41.315      273
   41.330      265
   41.345      255
   41.360      274
   41.375      297
   41.390      307
   41.405      307
   41.420      311
   41.435      284
   41.450      263
   41.465      289
   41.480      299
   41.495      268
   41.510      275
   41.525      306
   41.540      279
   41.555      274
   41.570      297
   41.585      300
   41.600      281
   41.615      303
   41.630      299
   41.645      295
   41.660      311
   41.675      293
   41.690      289
   41.705      298
   41.720      291
   41.735      303
   41.750      316
   41.765      304
   41.780      317
   41.795      326
   41.810      345
   41.825      321
   41.840      325
   41.855      330
   41.870      354
   41.885      331
   41.900      340
   41.915      335
   41.930      384
   41.945      353
   41.960      327
   41.975      362
   41.990      355
   42.005      425
   42.020      404
   42.035      393
   42.050      384
   42.065      377
   42.080      404
   42.095      425
   42.110      416
   42.125      421
   42.140      472
   42.155      459
   42.170      473
   42.185      492
   42.200      523
   42.215      507
   42.230      553
   42.245      563
   42.260      578
   42.275      604
   42.290      642
   42.305      661
   42.320      673
   42.335      713
   42.350      725
   42.365      802
   42.380      796
   42.395      847
   42.410      906
   42.425      993
   42.440      982
   42.455     1005
   42.470     1055
   42.485     1153
   42.500     1209
   42.515     1225
   42.530     1262
   42.545     1342
   42.560     1482
   42.575     1551
   42.590     1518
   42.605     1582
   42.620     1726
   42.635     1726
   42.650     1785
   42.665     1811
   42.680     1922
   42.695     1950
   42.710     1970
   42.725     2137
   42.740     2126
   42.755     2120
   42.770     2157
   42.785     2173
   42.800     2146
   42.815     2160
   42.830     2149
   42.845     2096
   42.860     2032
   42.875     1860
   42.890     1806
   42.905     1621
   42.920     1402
   42.935     1212
   42.950     1072
   42.965      980
   42.980      907
   42.995      856
   43.010      760
   43.025      697
   43.040      633
   43.055      641
   43.070      623
   43.085      562
   43.100      545
   43.115      550
   43.130      521
   43.145      472
   43.160      496
   43.175      488
   43.190      445
   43.205      401
   43.220      419
   43.235      446
   43.250      389
   43.265      370
   43.280      392
   43.295      393
   43.310      385
   43.325      363
   43.340      357
   43.355      390
   43.370      354
   43.385      366
   43.400      328
   43.415      325
   43.430      348
   43.445      366
   43.460      314
   43.475      308
   43.490      342
   43.505      305
   43.520      324
   43.535      339
   43.550      290
   43.565      313
   43.580      331
   43.595      331
   43.610      304
   43.625      295
   43.640      268
   43.655      306
   43.670      329
   43.685      311
   43.700      290
   43.715      295
   43.730      297
   43.745      306
   43.760      287
   43.775      276
   43.790      299
   43.805      266
   43.820      279
   43.835      271
   43.850      275
   43.865      264
   43.880      266
   43.895      271
   43.910      293
   43.925      286
   43.940      276
   43.955      282
   43.970      254
   43.985      281
   44.000      232
   44.015      247
   44.030      248
   44.045      251
   44.060      266
   44.075      250
   44.090      255
   44.105      243
   44.120      239
   44.135      231
   44.150      247
   44.165      251
   44.180      246
   44.195      262
   44.210      245
   44.225      239
   44.240      264
   44.255      226
   44.270      263
   44.285      261
   44.300      263
   44.315      244
   44.330      246
   44.345      237
   44.360      242
   44.375      262
   44.390      244
   44.405      229
   44.420      219
   44.435      241
   44.450      236
   44.465      251
   44.480      228
   44.495      242
   44.510      247
   44.525      238
   44.540      231
   44.555      228
   44.570      223
   44.585      239
   44.600      221
   44.615      241
   44.630      242
   44.645      250
   44.660      229
   44.675      250
   44.690      226
   44.705      225
   44.720      220
   44.735      230
   44.750      230
   44.765      245
   44.780      250
   44.795      232
   44.810      232
   44.825      245
   44.840      256
   44.855      253
   44.870      226
   44.885      250
   44.900      241
   44.915      227
   44.930      230
   44.945      230
   44.960      241
   44.975      241
   44.990      205
   45.005      220
   45.020      221
   45.035      225
   45.050      232
   45.065      239
   45.080      213
   45.095      235
   45.110      217
   45.125      206
   45.140      248
   45.155      256
   45.170      210
   45.185      211
   45.200      255
   45.215      247
   45.230      255
   45.245      237
   45.260      224
   45.275      242
   45.290      242
   45.305      243
   45.320      241
   45.335      212
   45.350      223
   45.365      245
   45.380      234
   45.395      245
   45.410      220
   45.425      257
   45.440      244
   45.455      223
   45.470      227
   45.485      223
   45.500      240
   45.515      214
   45.530      221
   45.545      219
   45.560      222
   45.575      220
   45.590      231
   45.605      233
   45.620      226
   45.635      229
   45.650      251
   45.665      255
   45.680      240
   45.695      227
   45.710      244
   45.725      230
   45.740      262
   45.755      233
   45.770      231
   45.785      224
   45.800      229
   45.815      233
   45.830      221
   45.845      198
   45.860      224
   45.875      244
   45.890      236
   45.905      236
   45.920      237
   45.935      233
   45.950      241
   45.965      223
   45.980      225
   45.995      227
   46.010      219
   46.025      211
   46.040      214
   46.055      219
   46.070      243
   46.085      230
   46.100      234
   46.115      226
   46.130      250
   46.145      217
   46.160      241
   46.175      230
   46.190      204
   46.205      215
   46.220      235
   46.235      231
   46.250      245
   46.265      239
   46.280      226
   46.295      243
   46.310      234
   46.325      237
   46.340      215
   46.355      242
   46.370      222
   46.385      235
   46.400      227
   46.415      230
   46.430      228
   46.445      221
   46.460      227
   46.475      217
   46.490      234
   46.505      223
   46.520      212
   46.535      236
   46.550      228
   46.565      230
   46.580      230
   46.595      225
   46.610      217
   46.625      216
   46.640      227
   46.655      221
   46.670      205
   46.685      218
   46.700      240
   46.715      227
   46.730      236
   46.745      240
   46.760      222
   46.775      231
   46.790      216
   46.805      208
   46.820      215
   46.835      241
   46.850      218
   46.865      231
   46.880      225
   46.895      221
   46.910      230
   46.925      233
   46.940      227
   46.955      223
   46.970      238
   46.985      250
   47.000      226
   47.015      200
   47.030      210
   47.045      234
   47.060      219
   47.075      226
   47.090      235
   47.105      223
   47.120      224
   47.135      219
   47.150      227
   47.165      225
   47.180      234
   47.195      227
   47.210      203
   47.225      242
   47.240      230
   47.255      201
   47.270      223
   47.285      222
   47.300      223
   47.315      239
   47.330      217
   47.345      222
   47.360      210
   47.375      247
   47.390      225
   47.405      246
   47.420      221
   47.435      229
   47.450      221
   47.465      220
   47.480      234
   47.495      227
   47.510      232
   47.525      217
   47.540      207
   47.555      221
   47.570      217
   47.585      230
   47.600      228
   47.615      242
   47.630      196
   47.645      218
   47.660      215
   47.675      211
   47.690      205
   47.705      209
   47.720      218
   47.735      214
   47.750      204
   47.765      193
   47.780      234
   47.795      232
   47.810      214
   47.825      226
   47.840      215
   47.855      227
   47.870      223
   47.885      219
   47.900      242
   47.915      238
   47.930      221
   47.945      225
   47.960      239
   47.975      245
   47.990      247
   48.005      252
   48.020      252
   48.035      234
   48.050      217
   48.065      225
   48.080      224
   48.095      233
   48.110      245
   48.125      238
   48.140      222
   48.155      237
   48.170      217
   48.185      234
   48.200      218
   48.215      229
   48.230      238
   48.245      255
   48.260      240
   48.275      233
   48.290      218
   48.305      223
   48.320      229
   48.335      218
   48.350      244
   48.365      218
   48.380      228
   48.395      221
   48.410      225
   48.425      214
   48.440      232
   48.455      234
   48.470      217
   48.485      195
   48.500      214
   48.515      246
   48.530      223
   48.545      246
   48.560      226
   48.575      227
   48.590      204
   48.605      227
   48.620      227
   48.635      216
   48.650      231
   48.665      229
   48.680      212
   48.695      205
   48.710      247
   48.725      240
   48.740      225
   48.755      233
   48.770      225
   48.785      249
   48.800      224
   48.815      193
   48.830      223
   48.845      237
   48.860      227
   48.875      221
   48.890      222
   48.905      230
   48.920      247
   48.935      224
   48.950      205
   48.965      191
   48.980      210
   48.995      224
   49.010      231
   49.025      222
   49.040      237
   49.055      204
   49.070      207
   49.085      224
   49.100      231
   49.115      241
   49.130      207
   49.145      232
   49.160      232
   49.175      213
   49.190      220
   49.205      231
   49.220      248
   49.235      223
   49.250      230
   49.265      235
   49.280      227
   49.295      245
   49.310      237
   49.325      234
   49.340      228
   49.355      235
   49.370      247
   49.385      228
   49.400      233
   49.415      209
   49.430      241
   49.445      234
   49.460      237
   49.475      230
   49.490      264
   49.505      223
   49.520      238
   49.535      207
   49.550      226
   49.565      225
   49.580      204
   49.595      213
   49.610      240
   49.625      247
   49.640      217
   49.655      212
   49.670      212
   49.685      227
   49.700      205
   49.715      239
   49.730      232
   49.745      232
   49.760      233
   49.775      241
   49.790      231
   49.805      245
   49.820      259
   49.835      234
   49.850      222
   49.865      243
   49.880      226
   49.895      225
   49.910      231
   49.925      223
   49.940      229
   49.955      235
   49.970      209
   49.985      248
   50.000      226
   50.015      238
   50.030      232
   50.045      223
   50.060      234
   50.075      244
   50.090      233
   50.105      225
   50.120      248
   50.135      223
   50.150      229
   50.165      242
   50.180      241
   50.195      251
   50.210      250
   50.225      251
   50.240      227
   50.255      241
   50.270      251
   50.285      272
   50.300      245
   50.315      250
   50.330      288
   50.345      282
   50.360      257
   50.375      251
   50.390      260
   50.405      295
   50.420      289
   50.435      302
   50.450      260
   50.465      273
   50.480      312
   50.495      273
   50.510      285
   50.525      272
   50.540      293
   50.555      302
   50.570      321
   50.585      318
   50.600      291
   50.615      329
   50.630      316
   50.645      320
   50.660      328
   50.675      344
   50.690      333
   50.705      315
   50.720      312
   50.735      330
   50.750      304
   50.765      306
   50.780      363
   50.795      305
   50.810      314
   50.825      297
   50.840      265
   50.855      264
   50.870      244
   50.885      244
   50.900      235
   50.915      239
   50.930      253
   50.945      258
   50.960      223
   50.975      232
   50.990      212
   51.005      232
   51.020      244
   51.035      205
   51.050      211
   51.065      220
   51.080      239
   51.095      245
   51.110      212
   51.125      222
   51.140      227
   51.155      236
   51.170      231
   51.185      239
   51.200      218
   51.215      239
   51.230      224
   51.245      221
   51.260      233
   51.275      214
   51.290      218
   51.305      226
   51.320      215
   51.335      222
   51.350      245
   51.365      239
   51.380      209
   51.395      218
   51.410      249
   51.425      218
   51.440      224
   51.455      218
   51.470      241
   51.485      234
   51.500      223
   51.515      227
   51.530      240
   51.545      230
   51.560      219
   51.575      229
   51.590      211
   51.605      230
   51.620      223
   51.635      247
   51.650      262
   51.665      240
   51.680      231
   51.695      223
   51.710      244
   51.725      255
   51.740      231
   51.755      230
   51.770      225
   51.785      218
   51.800      217
   51.815      215
   51.830      249
   51.845      227
   51.860      254
   51.875      234
   51.890      239
   51.905      233
   51.920      212
   51.935      231
   51.950      222
   51.965      199
   51.980      226
   51.995      222
   52.010      238
   52.025      247
   52.040      240
   52.055      229
   52.070      224
   52.085      246
   52.100      236
   52.115      206
   52.130      218
   52.145      249
   52.160      245
   52.175      224
   52.190      228
   52.205      251
   52.220      236
   52.235      219
   52.250      236
   52.265      233
   52.280      239
   52.295      248
   52.310      249
   52.325      253
   52.340      257
   52.355      251
   52.370      248
   52.385      244
   52.400      258
   52.415      227
   52.430      239
   52.445      269
   52.460      275
   52.475      247
   52.490      251
   52.505      270
   52.520      279
   52.535      272
   52.550      259
   52.565      269
   52.580      278
   52.595      261
   52.610      295
   52.625      313
   52.640      285
   52.655      301
   52.670      330
   52.685      301
   52.700      287
   52.715      309
   52.730      296
   52.745      319
   52.760      330
   52.775      304
   52.790      302
   52.805      333
   52.820      334
   52.835      326
   52.850      362
   52.865      336
   52.880      364
   52.895      349
   52.910      381
   52.925      379
   52.940      393
   52.955      386
   52.970      362
   52.985      358
   53.000      388
   53.015      389
   53.030      401
   53.045      417
   53.060      414
   53.075      427
   53.090      448
   53.105      411
   53.120      432
   53.135      421
   53.150      449
   53.165      413
   53.180      450
   53.195      416
   53.210      407
   53.225      399
   53.240      362
   53.255      342
   53.270      354
   53.285      347
   53.300      321
   53.315      285
   53.330      301
   53.345      285
   53.360      278
   53.375      281
   53.390      259
   53.405      247
   53.420      240
   53.435      254
   53.450      272
   53.465      248
   53.480      267
   53.495      250
   53.510      258
   53.525      220
   53.540      220
   53.555      248
   53.570      251
   53.585      226
   53.600      220
   53.615      248
   53.630      246
   53.645      246
   53.660      240
   53.675      208
   53.690      219
   53.705      204
   53.720      234
   53.735      223
   53.750      225
   53.765      216
   53.780      235
   53.795      231
   53.810      207
   53.825      233
   53.840      217
   53.855      243
   53.870      233
   53.885      227
   53.900      227
   53.915      210
   53.930      207
   53.945      233
   53.960      236
   53.975      205
   53.990      217
   54.005      216
   54.020      211
   54.035      214
   54.050      220
   54.065      229
   54.080      236
   54.095      225
   54.110      208
   54.125      198
   54.140      215
   54.155      227
   54.170      227
   54.185      210
   54.200      219
   54.215      227
   54.230      205
   54.245      203
   54.260      227
   54.275      222
   54.290      223
   54.305      191
   54.320      210
   54.335      197
   54.350      203
   54.365      220
   54.380      192
   54.395      211
   54.410      198
   54.425      232
   54.440      243
   54.455      213
   54.470      222
   54.485      210
   54.500      208
   54.515      226
   54.530      229
   54.545      224
   54.560      224
   54.575      215
   54.590      221
   54.605      240
   54.620      233
   54.635      204
   54.650      185
   54.665      222
   54.680      235
   54.695      216
   54.710      221
   54.725      185
   54.740      216
   54.755      217
   54.770      207
   54.785      201
   54.800      225
   54.815      218
   54.830      220
   54.845      223
   54.860      212
   54.875      210
   54.890      203
   54.905      219
   54.920      223
   54.935      203
   54.950      227
   54.965      212
   54.980      202
   54.995      209
   55.010      233
   55.025      230
   55.040      210
   55.055      207
   55.070      233
   55.085      229
   55.100      189
   55.115      220
   55.130      206
   55.145      206
   55.160      213
   55.175      223
   55.190      208
   55.205      220
   55.220      233
   55.235      203
   55.250      199
   55.265      229
   55.280      197
   55.295      217
   55.310      230
   55.325      210
   55.340      200
   55.355      207
   55.370      243
   55.385      211
   55.400      234
   55.415      208
   55.430      209
   55.445      232
   55.460      252
   55.475      216
   55.490      234
   55.505      247
   55.520      220
   55.535      212
   55.550      223
   55.565      255
   55.580      217
   55.595      215
   55.610      212
   55.625      233
   55.640      222
   55.655      214
   55.670      212
   55.685      216
   55.700      226
   55.715      208
   55.730      205
   55.745      238
   55.760      226
   55.775      225
   55.790      221
   55.805      246
   55.820      232
   55.835      215
   55.850      209
   55.865      198
   55.880      219
   55.895      214
   55.910      211
   55.925      222
   55.940      200
   55.955      196
   55.970      213
   55.985      218
   56.000      211
   56.015      192
   56.030      192
   56.045      203
   56.060      211
   56.075      197
   56.090      199
   56.105      194
   56.120      191
   56.135      212
   56.150      200
   56.165      201
   56.180      199
   56.195      201
   56.210      204
   56.225      222
   56.240      215
   56.255      229
   56.270      228
   56.285      212
   56.300      207
   56.315      220
   56.330      206
   56.345      192
   56.360      227
   56.375      216
   56.390      205
   56.405      191
   56.420      214
   56.435      230
   56.450      218
   56.465      206
   56.480      201
   56.495      212
   56.510      221
   56.525      226
   56.540      228
   56.555      243
   56.570      208
   56.585      201
   56.600      234
   56.615      201
   56.630      221
   56.645      221
   56.660      198
   56.675      221
   56.690      209
   56.705      221
   56.720      226
   56.735      219
   56.750      221
   56.765      185
   56.780      177
   56.795      215
   56.810      233
   56.825      212
   56.840      220
   56.855      222
   56.870      219
   56.885      226
   56.900      226
   56.915      217
   56.930      211
   56.945      211
   56.960      196
   56.975      207
   56.990      220
   57.005      235
   57.020      219
   57.035      229
   57.050      210
   57.065      217
   57.080      232
   57.095      205
   57.110      193
   57.125      205
   57.140      218
   57.155      246
   57.170      225
   57.185      223
   57.200      230
   57.215      195
   57.230      210
   57.245      192
   57.260      194
   57.275      212
   57.290      217
   57.305      208
   57.320      197
   57.335      216
   57.350      224
   57.365      216
   57.380      233
   57.395      224
   57.410      225
   57.425      205
   57.440      204
   57.455      209
   57.470      203
   57.485      213
   57.500      194
   57.515      218
   57.530      204
   57.545      214
   57.560      230
   57.575      215
   57.590      179
   57.605      221
   57.620      201
   57.635      220
   57.650      219
   57.665      221
   57.680      207
   57.695      220
   57.710      208
   57.725      223
   57.740      219
   57.755      221
   57.770      220
   57.785      236
   57.800      227
   57.815      202
   57.830      216
   57.845      234
   57.860      238
   57.875      230
   57.890      217
   57.905      208
   57.920      218
   57.935      249
   57.950      226
   57.965      214
   57.980      199
   57.995      213
   58.010      201
   58.025      199
   58.040      200
   58.055      223
   58.070      223
   58.085      198
   58.100      227
   58.115      214
   58.130      225
   58.145      193
   58.160      210
   58.175      222
   58.190      236
   58.205      202
   58.220      199
   58.235      204
   58.250      219
   58.265      228
   58.280      210
   58.295      222
   58.310      199
   58.325      202
   58.340      200
   58.355      229
   58.370      204
   58.385      225
   58.400      220
   58.415      207
   58.430      231
   58.445      212
   58.460      204
   58.475      209
   58.490      211
   58.505      203
   58.520      196
   58.535      214
   58.550      199
   58.565      205
   58.580      228
   58.595      219
   58.610      198
   58.625      194
   58.640      218
   58.655      219
   58.670      208
   58.685      197
   58.700      204
   58.715      215
   58.730      199
   58.745      216
   58.760      221
   58.775      235
   58.790      194
   58.805      212
   58.820      215
   58.835      208
   58.850      245
   58.865      208
   58.880      197
   58.895      211
   58.910      203
   58.925      216
   58.940      209
   58.955      199
   58.970      176
   58.985      198
   59.000      200
   59.015      201
   59.030      218
   59.045      228
   59.060      218
   59.075      210
   59.090      199
   59.105      196
   59.120      213
   59.135      204
   59.150      193
   59.165      194
   59.180      210
   59.195      204
   59.210      196
   59.225      227
   59.240      225
   59.255      229
   59.270      208
   59.285      214
   59.300      191
   59.315      194
   59.330      208
   59.345      231
   59.360      216
   59.375      215
   59.390      227
   59.405      197
   59.420      214
   59.435      221
   59.450      223
   59.465      209
   59.480      210
   59.495      228
   59.510      219
   59.525      229
   59.540      235
   59.555      229
   59.570      195
   59.585      222
   59.600      209
   59.615      222
   59.630      194
   59.645      215
   59.660      197
   59.675      204
   59.690      214
   59.705      221
   59.720      231
   59.735      225
   59.750      222
   59.765      218
   59.780      224
   59.795      203
   59.810      208
   59.825      226
   59.840      238
   59.855      221
   59.870      200
   59.885      190
   59.900      205
   59.915      199
   59.930      228
   59.945      209
   59.960      218
   59.975      220
   59.990      222
   60.005      214
   60.020      209
   60.035      210
   60.050      212
   60.065      227
   60.080      222
   60.095      247
   60.110      218
   60.125      206
   60.140      210
   60.155      231
   60.170      243
   60.185      246
   60.200      225
   60.215      193
   60.230      206
   60.245      205
   60.260      226
   60.275      223
   60.290      220
   60.305      216
   60.320      236
   60.335      220
   60.350      245
   60.365      222
   60.380      227
   60.395      219
   60.410      222
   60.425      232
   60.440      242
   60.455      219
   60.470      235
   60.485      231
   60.500      221
   60.515      233
   60.530      226
   60.545      208
   60.560      209
   60.575      219
   60.590      205
   60.605      209
   60.620      225
   60.635      228
   60.650      213
   60.665      235
   60.680      221
   60.695      216
   60.710      204
   60.725      215
   60.740      239
   60.755      232
   60.770      219
   60.785      222
   60.800      237
   60.815      215
   60.830      206
   60.845      233
   60.860      234
   60.875      246
   60.890      216
   60.905      209
   60.920      242
   60.935      229
   60.950      237
   60.965      207
   60.980      209
   60.995      237
   61.010      237
   61.025      221
   61.040      220
   61.055      241
   61.070      231
   61.085      222
   61.100      228
   61.115      221
   61.130      235
   61.145      220
   61.160      236
   61.175      208
   61.190      225
   61.205      219
   61.220      211
   61.235      213
   61.250      233
   61.265      222
   61.280      228
   61.295      247
   61.310      212
   61.325      233
   61.340      222
   61.355      214
   61.370      236
   61.385      223
   61.400      227
   61.415      226
   61.430      227
   61.445      241
   61.460      225
   61.475      275
   61.490      242
   61.505      237
   61.520      270
   61.535      239
   61.550      265
   61.565      250
   61.580      274
   61.595      268
   61.610      265
   61.625      243
   61.640      266
   61.655      289
   61.670      250
   61.685      266
   61.700      285
   61.715      265
   61.730      266
   61.745      280
   61.760      315
   61.775      309
   61.790      287
   61.805      307
   61.820      326
   61.835      356
   61.850      358
   61.865      346
   61.880      340
   61.895      332
   61.910      355
   61.925      343
   61.940      375
   61.955      373
   61.970      391
   61.985      383
   62.000      385
   62.015      427
   62.030      441
   62.045      427
   62.060      434
   62.075      462
   62.090      431
   62.105      422
   62.120      457
   62.135      492
   62.150      493
   62.165      463
   62.180      497
   62.195      497
   62.210      521
   62.225      530
   62.240      554
   62.255      551
   62.270      553
   62.285      550
   62.300      540
   62.315      483
   62.330      460
   62.345      438
   62.360      406
   62.375      382
   62.390      402
   62.405      338
   62.420      318
   62.435      296
   62.450      277
   62.465      286
   62.480      318
   62.495      267
   62.510      280
   62.525      277
   62.540      266
   62.555      247
   62.570      274
   62.585      258
   62.600      253
   62.615      235
   62.630      236
   62.645      262
   62.660      250
   62.675      247
   62.690      238
   62.705      223
   62.720      240
   62.735      239
   62.750      245
   62.765      213
   62.780      227
   62.795      254
   62.810      221
   62.825      219
   62.840      249
   62.855      229
   62.870      224
   62.885      208
   62.900      196
   62.915      215
   62.930      230
   62.945      226
   62.960      224
   62.975      242
   62.990      231
   63.005      236
   63.020      243
   63.035      231
   63.050      214
   63.065      208
   63.080      240
   63.095      246
   63.110      247
   63.125      213
   63.140      226
   63.155      242
   63.170      224
   63.185      231
   63.200      217
   63.215      227
   63.230      226
   63.245      197
   63.260      209
   63.275      248
   63.290      211
   63.305      216
   63.320      216
   63.335      211
   63.350      218
   63.365      219
   63.380      216
   63.395      217
   63.410      212
   63.425      230
   63.440      216
   63.455      248
   63.470      239
   63.485      232
   63.500      236
   63.515      220
   63.530      220
   63.545      216
   63.560      222
   63.575      242
   63.590      221
   63.605      214
   63.620      216
   63.635      229
   63.650      200
   63.665      201
   63.680      202
   63.695      224
   63.710      226
   63.725      223
   63.740      205
   63.755      216
   63.770      211
   63.785      241
   63.800      226
   63.815      205
   63.830      225
   63.845      203
   63.860      214
   63.875      220
   63.890      211
   63.905      226
   63.920      218
   63.935      235
   63.950      212
   63.965      192
   63.980      204
   63.995      197
   64.010      206
   64.025      226
   64.040      206
   64.055      216
   64.070      221
   64.085      223
   64.100      212
   64.115      223
   64.130      220
   64.145      208
   64.160      225
   64.175      208
   64.190      211
   64.205      219
   64.220      231
   64.235      211
   64.250      183
   64.265      187
   64.280      207
   64.295      202
   64.310      217
   64.325      190
   64.340      226
   64.355      240
   64.370      227
   64.385      210
   64.400      203
   64.415      222
   64.430      205
   64.445      218
   64.460      208
   64.475      207
   64.490      209
   64.505      200
   64.520      233
   64.535      204
   64.550      191
   64.565      196
   64.580      214
   64.595      220
   64.610      198
   64.625      201
   64.640      224
   64.655      228
   64.670      228
   64.685      226
   64.700      213
   64.715      220
   64.730      221
   64.745      209
   64.760      216
   64.775      197
   64.790      202
   64.805      206
   64.820      202
   64.835      208
   64.850      209
   64.865      200
   64.880      213
   64.895      237
   64.910      214
   64.925      209
   64.940      221
   64.955      198
   64.970      218
   64.985      218
   65.000      223
   65.015      210
   65.030      209
   65.045      223
   65.060      225
   65.075      228
   65.090      213
   65.105      212
   65.120      217
   65.135      212
   65.150      225
   65.165      218
   65.180      197
   65.195      216
   65.210      205
   65.225      212
   65.240      210
   65.255      200
   65.270      212
   65.285      208
   65.300      235
   65.315      215
   65.330      209
   65.345      195
   65.360      198
   65.375      199
   65.390      207
   65.405      215
   65.420      202
   65.435      239
   65.450      224
   65.465      213
   65.480      210
   65.495      208
   65.510      208
   65.525      211
   65.540      215
   65.555      197
   65.570      196
   65.585      207
   65.600      196
   65.615      226
   65.630      218
   65.645      200
   65.660      245
   65.675      203
   65.690      193
   65.705      231
   65.720      201
   65.735      202
   65.750      219
   65.765      236
   65.780      222
   65.795      225
   65.810      246
   65.825      236
   65.840      235
   65.855      224
   65.870      212
   65.885      219
   65.900      215
   65.915      207
   65.930      216
   65.945      213
   65.960      205
   65.975      205
   65.990      225
   66.005      219
   66.020      193
   66.035      213
   66.050      236
   66.065      204
   66.080      207
   66.095      222
   66.110      225
   66.125      214
   66.140      204
   66.155      224
   66.170      208
   66.185      215
   66.200      189
   66.215      204
   66.230      218
   66.245      225
   66.260      203
   66.275      226
   66.290      215
   66.305      221
   66.320      240
   66.335      215
   66.350      216
   66.365      205
   66.380      208
   66.395      207
   66.410      217
   66.425      223
   66.440      225
   66.455      203
   66.470      231
   66.485      227
   66.500      206
   66.515      206
   66.530      215
   66.545      218
   66.560      215
   66.575      206
   66.590      185
   66.605      207
   66.620      208
   66.635      217
   66.650      226
   66.665      211
   66.680      229
   66.695      230
   66.710      219
   66.725      208
   66.740      217
   66.755      215
   66.770      214
   66.785      215
   66.800      213
   66.815      231
   66.830      232
   66.845      207
   66.860      212
   66.875      198
   66.890      193
   66.905      214
   66.920      197
   66.935      213
   66.950      226
   66.965      220
   66.980      206
   66.995      216
   67.010      234
   67.025      218
   67.040      223
   67.055      223
   67.070      223
   67.085      221
   67.100      224
   67.115      201
   67.130      205
   67.145      224
   67.160      217
   67.175      217
   67.190      235
   67.205      223
   67.220      237
   67.235      245
   67.250      245
   67.265      238
   67.280      234
   67.295      234
   67.310      224
   67.325      239
   67.340      208
   67.355      220
   67.370      229
   67.385      213
   67.400      189
   67.415      233
   67.430      249
   67.445      238
   67.460      223
   67.475      219
   67.490      243
   67.505      236
   67.520      204
   67.535      222
   67.550      245
   67.565      221
   67.580      230
   67.595      225
   67.610      218
   67.625      244
   67.640      234
   67.655      220
   67.670      255
   67.685      233
   67.700      239
   67.715      250
   67.730      232
   67.745      273
   67.760      251
   67.775      232
   67.790      267
   67.805      275
   67.820      242
   67.835      233
   67.850      237
   67.865      230
   67.880      245
   67.895      244
   67.910      244
   67.925      244
   67.940      236
   67.955      235
   67.970      223
   67.985      220
   68.000      235
   68.015      226
   68.030      213
   68.045      249
   68.060      229
   68.075      242
   68.090      222
   68.105      224
   68.120      225
   68.135      235
   68.150      236
   68.165      229
   68.180      240
   68.195      238
   68.210      246
   68.225      254
   68.240      282
   68.255      244
   68.270      226
   68.285      244
   68.300      260
   68.315      254
   68.330      241
   68.345      239
   68.360      237
   68.375      226
   68.390      243
   68.405      229
   68.420      230
   68.435      232
   68.450      239
   68.465      250
   68.480      228
   68.495      251
   68.510      244
   68.525      237
   68.540      240
   68.555      240
   68.570      238
   68.585      288
   68.600      273
   68.615      264
   68.630      260
   68.645      262
   68.660      252
   68.675      268
   68.690      230
   68.705      247
   68.720      229
   68.735      236
   68.750      238
   68.765      245
   68.780      256
   68.795      240
   68.810      261
   68.825      236
   68.840      231
   68.855      219
   68.870      219
   68.885      217
   68.900      247
   68.915      258
   68.930      208
   68.945      225
   68.960      226
   68.975      223
   68.990      226
   69.005      231
   69.020      208
   69.035      207
   69.050      228
   69.065      222
   69.080      216
   69.095      208
   69.110      221
   69.125      236
   69.140      243
   69.155      197
   69.170      248
   69.185      217
   69.200      224
   69.215      218
   69.230      243
   69.245      228
   69.260      229
   69.275      250
   69.290      249
   69.305      242
   69.320      216
   69.335      249
   69.350      256
   69.365      230
   69.380      256
   69.395      209
   69.410      243
   69.425      245
   69.440      246
   69.455      249
   69.470      222
   69.485      247
   69.500      247
   69.515      196
   69.530      212
   69.545      227
   69.560      235
   69.575      224
   69.590      285
   69.605      278
   69.620      263
   69.635      243
   69.650      248
   69.665      238
   69.680      226
   69.695      243
   69.710      238
   69.725      251
   69.740      283
   69.755      262
   69.770      270
   69.785      258
   69.800      276
   69.815      282
   69.830      250
   69.845      249
   69.860      267
   69.875      268
   69.890      282
   69.905      255
   69.920      281
   69.935      280
   69.950      270
   69.965      251
   69.980      299
   69.995      284
   70.010      275
   70.025      281
   70.040      300
   70.055      291
   70.070      315
   70.085      306
   70.100      341
   70.115      290
   70.130      313
   70.145      333
   70.160      334
   70.175      311
   70.190      305
   70.205      353
   70.220      359
   70.235      340
   70.250      342
   70.265      379
   70.280      330
   70.295      351
   70.310      309
   70.325      358
   70.340      363
   70.355      358
   70.370      350
   70.385      378
   70.400      358
   70.415      379
   70.430      372
   70.445      364
   70.460      384
   70.475      417
   70.490      415
   70.505      422
   70.520      412
   70.535      407
   70.550      418
   70.565      462
   70.580      443
   70.595      457
   70.610      469
   70.625      501
   70.640      476
   70.655      494
   70.670      502
   70.685      470
   70.700      453
   70.715      379
   70.730      403
   70.745      397
   70.760      358
   70.775      373
   70.790      357
   70.805      323
   70.820      322
   70.835      306
   70.850      283
   70.865      274
   70.880      252
   70.895      263
   70.910      277
   70.925      286
   70.940      260
   70.955      266
   70.970      268
   70.985      250
   71.000      240
   71.015      237
   71.030      260
   71.045      251
   71.060      252
   71.075      245
   71.090      229
   71.105      219
   71.120      253
   71.135      242
   71.150      211
   71.165      234
   71.180      244
   71.195      246
   71.210      238
   71.225      243
   71.240      231
   71.255      215
   71.270      206
   71.285      233
   71.300      212
   71.315      229
   71.330      213
   71.345      231
   71.360      220
   71.375      241
   71.390      222
   71.405      223
   71.420      227
   71.435      215
   71.450      222
   71.465      230
   71.480      227
   71.495      222
   71.510      216
   71.525      204
   71.540      247
   71.555      208
   71.570      201
   71.585      208
   71.600      225
   71.615      209
   71.630      218
   71.645      211
   71.660      232
   71.675      231
   71.690      226
   71.705      226
   71.720      232
   71.735      221
   71.750      202
   71.765      224
   71.780      227
   71.795      207
   71.810      214
   71.825      243
   71.840      227
   71.855      225
   71.870      228
   71.885      217
   71.900      214
   71.915      222
   71.930      219
   71.945      205
   71.960      199
   71.975      217
   71.990      213
   72.005      223
   72.020      227
   72.035      200
   72.050      235
   72.065      216
   72.080      199
   72.095      232
   72.110      231
   72.125      217
   72.140      211
   72.155      237
   72.170      228
   72.185      191
   72.200      205
   72.215      201
   72.230      206
   72.245      210
   72.260      225
   72.275      210
   72.290      231
   72.305      199
   72.320      209
   72.335      231
   72.350      223
   72.365      208
   72.380      232
   72.395      224
   72.410      213
   72.425      218
   72.440      207
   72.455      248
   72.470      229
   72.485      215
   72.500      213
   72.515      205
   72.530      227
   72.545      214
   72.560      195
   72.575      220
   72.590      221
   72.605      211
   72.620      206
   72.635      220
   72.650      219
   72.665      220
   72.680      200
   72.695      244
   72.710      232
   72.725      231
   72.740      239
   72.755      192
   72.770      229
   72.785      246
   72.800      201
   72.815      208
   72.830      224
   72.845      234
   72.860      241
   72.875      222
   72.890      232
   72.905      206
   72.920      213
   72.935      235
   72.950      209
   72.965      193
   72.980      214
   72.995      218
   73.010      222
   73.025      229
   73.040      224
   73.055      217
   73.070      205
   73.085      207
   73.100      227
   73.115      191
   73.130      207
   73.145      216
   73.160      229
   73.175      231
   73.190      199
   73.205      223
   73.220      210
   73.235      204
   73.250      220
   73.265      203
   73.280      217
   73.295      219
   73.310      223
   73.325      216
   73.340      201
   73.355      201
   73.370      193
   73.385      220
   73.400      231
   73.415      232
   73.430      212
   73.445      219
   73.460      206
   73.475      244
   73.490      215
   73.505      181
   73.520      213
   73.535      185
   73.550      200
   73.565      204
   73.580      215
   73.595      213
   73.610      219
   73.625      195
   73.640      194
   73.655      204
   73.670      203
   73.685      216
   73.700      215
   73.715      248
   73.730      248
   73.745      228
   73.760      232
   73.775      217
   73.790      205
   73.805      223
   73.820      233
   73.835      224
   73.850      222
   73.865      193
   73.880      195
   73.895      216
   73.910      194
   73.925      221
   73.940      226
   73.955      241
   73.970      231
   73.985      220
   74.000      210
   74.015      207
   74.030      220
   74.045      212
   74.060      212
   74.075      232
   74.090      238
   74.105      223
   74.120      195
   74.135      244
   74.150      234
   74.165      221
   74.180      216
   74.195      229
   74.210      207
   74.225      217
   74.240      218
   74.255      219
   74.270      200
   74.285      234
   74.300      225
   74.315      219
   74.330      222
   74.345      227
   74.360      217
   74.375      203
   74.390      231
   74.405      256
   74.420      228
   74.435      221
   74.450      252
   74.465      234
   74.480      245
   74.495      218
   74.510      226
   74.525      221
   74.540      215
   74.555      209
   74.570      218
   74.585      216
   74.600      207
   74.615      221
   74.630      219
   74.645      214
   74.660      215
   74.675      230
   74.690      230
   74.705      233
   74.720      217
   74.735      234
   74.750      235
   74.765      223
   74.780      227
   74.795      229
   74.810      211
   74.825      206
   74.840      215
   74.855      221
   74.870      213
   74.885      227
   74.900      219
   74.915      237
   74.930      218
   74.945      206
   74.960      214
   74.975      236
   74.990      207
   75.005      211
   75.020      207
   75.035      210
   75.050      214
   75.065      212
   75.080      216
   75.095      215
   75.110      186
   75.125      203
   75.140      194
   75.155      222
   75.170      214
   75.185      199
   75.200      223
   75.215      225
   75.230      207
   75.245      202
   75.260      218
   75.275      226
   75.290      210
   75.305      239
   75.320      229
   75.335      233
   75.350      228
   75.365      218
   75.380      187
   75.395      193
   75.410      212
   75.425      228
   75.440      201
   75.455      192
   75.470      217
   75.485      226
   75.500      223
   75.515      213
   75.530      222
   75.545      210
   75.560      216
   75.575      210
   75.590      197
   75.605      217
   75.620      194
   75.635      195
   75.650      207
   75.665      209
   75.680      221
   75.695      197
   75.710      204
   75.725      229
   75.740      229
   75.755      215
   75.770      202
   75.785      192
   75.800      198
   75.815      225
   75.830      216
   75.845      214
   75.860      204
   75.875      214
   75.890      220
   75.905      199
   75.920      218
   75.935      211
   75.950      221
   75.965      240
   75.980      220
   75.995      212
   76.010      203
   76.025      229
   76.040      215
   76.055      227
   76.070      208
   76.085      217
   76.100      219
   76.115      225
   76.130      244
   76.145      213
   76.160      203
   76.175      210
   76.190      216
   76.205      210
   76.220      224
   76.235      239
   76.250      211
   76.265      203
   76.280      228
   76.295      218
   76.310      217
   76.325      212
   76.340      223
   76.355      227
   76.370      229
   76.385      239
   76.400      223
   76.415      198
   76.430      216
   76.445      220
   76.460      229
   76.475      246
   76.490      207
   76.505      196
   76.520      212
   76.535      213
   76.550      240
   76.565      230
   76.580      199
   76.595      190
   76.610      237
   76.625      210
   76.640      225
   76.655      241
   76.670      237
   76.685      245
   76.700      216
   76.715      236
   76.730      216
   76.745      214
   76.760      226
   76.775      225
   76.790      213
   76.805      237
   76.820      222
   76.835      226
   76.850      235
   76.865      234
   76.880      236
   76.895      243
   76.910      257
   76.925      231
   76.940      241
   76.955      246
   76.970      227
   76.985      238
   77.000      227
   77.015      238
   77.030      259
   77.045      250
   77.060      252
   77.075      236
   77.090      243
   77.105      245
   77.120      231
   77.135      231
   77.150      235
   77.165      224
   77.180      225
   77.195      233
   77.210      247
   77.225      248
   77.240      261
   77.255      236
   77.270      228
   77.285      232
   77.300      285
   77.315      243
   77.330      248
   77.345      278
   77.360      269
   77.375      246
   77.390      229
   77.405      252
   77.420      276
   77.435      260
   77.450      293
   77.465      277
   77.480      294
   77.495      260
   77.510      250
   77.525      281
   77.540      272
   77.555      256
   77.570      269
   77.585      280
   77.600      240
   77.615      263
   77.630      288
   77.645      278
   77.660      298
   77.675      301
   77.690      292
   77.705      292
   77.720      330
   77.735      306
   77.750      310
   77.765      309
   77.780      292
   77.795      322
   77.810      294
   77.825      316
   77.840      343
   77.855      342
   77.870      353
   77.885      325
   77.900      314
   77.915      319
   77.930      348
   77.945      379
   77.960      350
   77.975      351
   77.990      377
   78.005      385
   78.020      346
   78.035      380
   78.050      386
   78.065      372
   78.080      405
   78.095      354
   78.110      345
   78.125      372
   78.140      400
   78.155      393
   78.170      387
   78.185      405
   78.200      429
   78.215      433
   78.230      412
   78.245      455
   78.260      455
   78.275      486
   78.290      463
   78.305      460
   78.320      436
   78.335      495
   78.350      497
   78.365      469
   78.380      494
   78.395      478
   78.410      516
   78.425      521
   78.440      538
   78.455      540
   78.470      552
   78.485      591
   78.500      585
   78.515      566
   78.530      596
   78.545      621
   78.560      595
   78.575      647
   78.590      657
   78.605      636
   78.620      667
   78.635      705
   78.650      650
   78.665      638
   78.680      654
   78.695      617
   78.710      568
   78.725      531
   78.740      515
   78.755      474
   78.770      398
   78.785      411
   78.800      385
   78.815      399
   78.830      353
   78.845      343
   78.860      322
   78.875      277
   78.890      304
   78.905      301
   78.920      294
   78.935      293
   78.950      308
   78.965      270
   78.980      283
   78.995      276
   79.010      281
   79.025      276
   79.040      246
   79.055      255
   79.070      254
   79.085      256
   79.100      262
   79.115      253
   79.130      241
   79.145      251
   79.160      248
   79.175      260
   79.190      262
   79.205      223
   79.220      232
   79.235      240
   79.250      242
   79.265      239
   79.280      231
   79.295      248
   79.310      247
   79.325      248
   79.340      261
   79.355      265
   79.370      232
   79.385      220
   79.400      253
   79.415      218
   79.430      200
   79.445      228
   79.460      251
   79.475      232
   79.490      228
   79.505      215
   79.520      211
   79.535      245
   79.550      229
   79.565      220
   79.580      187
   79.595      233
   79.610      253
   79.625      240
   79.640      212
   79.655      222
   79.670      208
   79.685      215
   79.700      222
   79.715      230
   79.730      247
   79.745      209
   79.760      234
   79.775      243
   79.790      243
   79.805      211
   79.820      207
   79.835      233
   79.850      213
   79.865      219
   79.880      218
   79.895      228
   79.910      212
   79.925      222
   79.940      211
   79.955      213
   79.970      213
   79.985      196
   80.000      214
   80.015      219
   80.030      207
   80.045      217
   80.060      216
   80.075      216
   80.090      203
   80.105      211
   80.120      223
   80.135      201
   80.150      214
   80.165      222
   80.180      215
   80.195      211
   80.210      201
   80.225      204
   80.240      206
   80.255      211
   80.270      223
   80.285      195
   80.300      227
   80.315      215
   80.330      183
   80.345      204
   80.360      216
   80.375      193
   80.390      195
   80.405      202
   80.420      198
   80.435      218
   80.450      226
   80.465      227
   80.480      213
   80.495      180
   80.510      212
   80.525      198
   80.540      236
   80.555      193
   80.570      192
   80.585      215
   80.600      210
   80.615      200
   80.630      201
   80.645      218
   80.660      207
   80.675      224
   80.690      231
   80.705      200
   80.720      208
   80.735      201
   80.750      233
   80.765      225
   80.780      224
   80.795      224
   80.810      245
   80.825      224
   80.840      207
   80.855      228
   80.870      221
   80.885      190
   80.900      227
   80.915      207
   80.930      218
   80.945      209
   80.960      218
   80.975      198
   80.990      209
   81.005      226
   81.020      214
   81.035      219
   81.050      238
   81.065      203
   81.080      215
   81.095      209
   81.110      209
   81.125      209
   81.140      213
   81.155      192
   81.170      215
   81.185      213
   81.200      190
   81.215      206
   81.230      210
   81.245      214
   81.260      223
   81.275      225
   81.290      246
   81.305      209
   81.320      223
   81.335      219
   81.350      208
   81.365      214
   81.380      221
   81.395      220
   81.410      198
   81.425      216
   81.440      216
   81.455      247
   81.470      240
   81.485      228
   81.500      231
   81.515      226
   81.530      227
   81.545      222
   81.560      201
   81.575      208
   81.590      209
   81.605      217
   81.620      188
   81.635      220
   81.650      211
   81.665      216
   81.680      199
   81.695      223
   81.710      246
   81.725      224
   81.740      227
   81.755      245
   81.770      246
   81.785      220
   81.800      228
   81.815      207
   81.830      244
